#   8Li + 208Pb elastic scattering Elab=31 Mev
# --------- Optical Potential ---------  
#     r(fm)       V(MeV)       W(MeV)
       0.00       -91.6966     0.0000E+00
       0.01       -91.6966     0.0000E+00
       0.02       -91.6966     0.0000E+00
       0.03       -91.6966     0.0000E+00
       0.04       -91.6968     0.0000E+00
       0.05       -91.6970     0.0000E+00
       0.06       -91.6973     0.0000E+00
       0.07       -91.6976     0.0000E+00
       0.08       -91.6978     0.0000E+00
       0.09       -91.6982     0.0000E+00
       0.10       -91.6987     0.0000E+00
       0.11       -91.6992     0.0000E+00
       0.12       -91.6996     0.0000E+00
       0.13       -91.7002     0.0000E+00
       0.14       -91.7008     0.0000E+00
       0.15       -91.7015     0.0000E+00
       0.16       -91.7021     0.0000E+00
       0.17       -91.7029     0.0000E+00
       0.18       -91.7037     0.0000E+00
       0.19       -91.7045     0.0000E+00
       0.20       -91.7054     0.0000E+00
       0.21       -91.7064     0.0000E+00
       0.22       -91.7074     0.0000E+00
       0.23       -91.7083     0.0000E+00
       0.24       -91.7094     0.0000E+00
       0.25       -91.7106     0.0000E+00
       0.26       -91.7118     0.0000E+00
       0.27       -91.7129     0.0000E+00
       0.28       -91.7142     0.0000E+00
       0.29       -91.7155     0.0000E+00
       0.30       -91.7168     0.0000E+00
       0.31       -91.7182     0.0000E+00
       0.32       -91.7197     0.0000E+00
       0.33       -91.7211     0.0000E+00
       0.34       -91.7227     0.0000E+00
       0.35       -91.7243     0.0000E+00
       0.36       -91.7259     0.0000E+00
       0.37       -91.7276     0.0000E+00
       0.38       -91.7293     0.0000E+00
       0.39       -91.7310     0.0000E+00
       0.40       -91.7329     0.0000E+00
       0.41       -91.7348     0.0000E+00
       0.42       -91.7366     0.0000E+00
       0.43       -91.7386     0.0000E+00
       0.44       -91.7406     0.0000E+00
       0.45       -91.7426     0.0000E+00
       0.46       -91.7447     0.0000E+00
       0.47       -91.7468     0.0000E+00
       0.48       -91.7490     0.0000E+00
       0.49       -91.7513     0.0000E+00
       0.50       -91.7535     0.0000E+00
       0.51       -91.7559     0.0000E+00
       0.52       -91.7583     0.0000E+00
       0.53       -91.7607     0.0000E+00
       0.54       -91.7632     0.0000E+00
       0.55       -91.7656     0.0000E+00
       0.56       -91.7682     0.0000E+00
       0.57       -91.7709     0.0000E+00
       0.58       -91.7734     0.0000E+00
       0.59       -91.7762     0.0000E+00
       0.60       -91.7789     0.0000E+00
       0.61       -91.7817     0.0000E+00
       0.62       -91.7845     0.0000E+00
       0.63       -91.7874     0.0000E+00
       0.64       -91.7903     0.0000E+00
       0.65       -91.7933     0.0000E+00
       0.66       -91.7963     0.0000E+00
       0.67       -91.7994     0.0000E+00
       0.68       -91.8024     0.0000E+00
       0.69       -91.8056     0.0000E+00
       0.70       -91.8088     0.0000E+00
       0.71       -91.8121     0.0000E+00
       0.72       -91.8153     0.0000E+00
       0.73       -91.8187     0.0000E+00
       0.74       -91.8221     0.0000E+00
       0.75       -91.8256     0.0000E+00
       0.76       -91.8290     0.0000E+00
       0.77       -91.8326     0.0000E+00
       0.78       -91.8361     0.0000E+00
       0.79       -91.8398     0.0000E+00
       0.80       -91.8434     0.0000E+00
       0.81       -91.8470     0.0000E+00
       0.82       -91.8509     0.0000E+00
       0.83       -91.8546     0.0000E+00
       0.84       -91.8585     0.0000E+00
       0.85       -91.8624     0.0000E+00
       0.86       -91.8663     0.0000E+00
       0.87       -91.8703     0.0000E+00
       0.88       -91.8743     0.0000E+00
       0.89       -91.8785     0.0000E+00
       0.90       -91.8826     0.0000E+00
       0.91       -91.8867     0.0000E+00
       0.92       -91.8910     0.0000E+00
       0.93       -91.8952     0.0000E+00
       0.94       -91.8995     0.0000E+00
       0.95       -91.9038     0.0000E+00
       0.96       -91.9083     0.0000E+00
       0.97       -91.9127     0.0000E+00
       0.98       -91.9171     0.0000E+00
       0.99       -91.9218     0.0000E+00
       1.00       -91.9263     0.0000E+00
       1.01       -91.9309     0.0000E+00
       1.02       -91.9356     0.0000E+00
       1.03       -91.9404     0.0000E+00
       1.04       -91.9451     0.0000E+00
       1.05       -91.9499     0.0000E+00
       1.06       -91.9547     0.0000E+00
       1.07       -91.9596     0.0000E+00
       1.08       -91.9647     0.0000E+00
       1.09       -91.9696     0.0000E+00
       1.10       -91.9746     0.0000E+00
       1.11       -91.9797     0.0000E+00
       1.12       -91.9848     0.0000E+00
       1.13       -91.9901     0.0000E+00
       1.14       -91.9953     0.0000E+00
       1.15       -92.0006     0.0000E+00
       1.16       -92.0059     0.0000E+00
       1.17       -92.0112     0.0000E+00
       1.18       -92.0166     0.0000E+00
       1.19       -92.0221     0.0000E+00
       1.20       -92.0276     0.0000E+00
       1.21       -92.0331     0.0000E+00
       1.22       -92.0387     0.0000E+00
       1.23       -92.0443     0.0000E+00
       1.24       -92.0500     0.0000E+00
       1.25       -92.0557     0.0000E+00
       1.26       -92.0615     0.0000E+00
       1.27       -92.0673     0.0000E+00
       1.28       -92.0732     0.0000E+00
       1.29       -92.0791     0.0000E+00
       1.30       -92.0851     0.0000E+00
       1.31       -92.0911     0.0000E+00
       1.32       -92.0971     0.0000E+00
       1.33       -92.1032     0.0000E+00
       1.34       -92.1094     0.0000E+00
       1.35       -92.1155     0.0000E+00
       1.36       -92.1217     0.0000E+00
       1.37       -92.1280     0.0000E+00
       1.38       -92.1343     0.0000E+00
       1.39       -92.1407     0.0000E+00
       1.40       -92.1471     0.0000E+00
       1.41       -92.1535     0.0000E+00
       1.42       -92.1600     0.0000E+00
       1.43       -92.1666     0.0000E+00
       1.44       -92.1732     0.0000E+00
       1.45       -92.1798     0.0000E+00
       1.46       -92.1865     0.0000E+00
       1.47       -92.1932     0.0000E+00
       1.48       -92.1999     0.0000E+00
       1.49       -92.2068     0.0000E+00
       1.50       -92.2137     0.0000E+00
       1.51       -92.2205     0.0000E+00
       1.52       -92.2275     0.0000E+00
       1.53       -92.2344     0.0000E+00
       1.54       -92.2415     0.0000E+00
       1.55       -92.2487     0.0000E+00
       1.56       -92.2557     0.0000E+00
       1.57       -92.2630     0.0000E+00
       1.58       -92.2701     0.0000E+00
       1.59       -92.2775     0.0000E+00
       1.60       -92.2847     0.0000E+00
       1.61       -92.2920     0.0000E+00
       1.62       -92.2995     0.0000E+00
       1.63       -92.3069     0.0000E+00
       1.64       -92.3143     0.0000E+00
       1.65       -92.3219     0.0000E+00
       1.66       -92.3295     0.0000E+00
       1.67       -92.3372     0.0000E+00
       1.68       -92.3448     0.0000E+00
       1.69       -92.3525     0.0000E+00
       1.70       -92.3602     0.0000E+00
       1.71       -92.3681     0.0000E+00
       1.72       -92.3759     0.0000E+00
       1.73       -92.3838     0.0000E+00
       1.74       -92.3917     0.0000E+00
       1.75       -92.3997     0.0000E+00
       1.76       -92.4077     0.0000E+00
       1.77       -92.4158     0.0000E+00
       1.78       -92.4239     0.0000E+00
       1.79       -92.4320     0.0000E+00
       1.80       -92.4402     0.0000E+00
       1.81       -92.4485     0.0000E+00
       1.82       -92.4567     0.0000E+00
       1.83       -92.4651     0.0000E+00
       1.84       -92.4735     0.0000E+00
       1.85       -92.4819     0.0000E+00
       1.86       -92.4904     0.0000E+00
       1.87       -92.4989     0.0000E+00
       1.88       -92.5075     0.0000E+00
       1.89       -92.5160     0.0000E+00
       1.90       -92.5247     0.0000E+00
       1.91       -92.5334     0.0000E+00
       1.92       -92.5421     0.0000E+00
       1.93       -92.5509     0.0000E+00
       1.94       -92.5597     0.0000E+00
       1.95       -92.5685     0.0000E+00
       1.96       -92.5775     0.0000E+00
       1.97       -92.5864     0.0000E+00
       1.98       -92.5954     0.0000E+00
       1.99       -92.6044     0.0000E+00
       2.00       -92.6135     0.0000E+00
       2.01       -92.6226     0.0000E+00
       2.02       -92.6318     0.0000E+00
       2.03       -92.6410     0.0000E+00
       2.04       -92.6502     0.0000E+00
       2.05       -92.6596     0.0000E+00
       2.06       -92.6689     0.0000E+00
       2.07       -92.6783     0.0000E+00
       2.08       -92.6877     0.0000E+00
       2.09       -92.6972     0.0000E+00
       2.10       -92.7067     0.0000E+00
       2.11       -92.7162     0.0000E+00
       2.12       -92.7258     0.0000E+00
       2.13       -92.7356     0.0000E+00
       2.14       -92.7451     0.0000E+00
       2.15       -92.7549     0.0000E+00
       2.16       -92.7647     0.0000E+00
       2.17       -92.7745     0.0000E+00
       2.18       -92.7844     0.0000E+00
       2.19       -92.7943     0.0000E+00
       2.20       -92.8042     0.0000E+00
       2.21       -92.8142     0.0000E+00
       2.22       -92.8242     0.0000E+00
       2.23       -92.8343     0.0000E+00
       2.24       -92.8444     0.0000E+00
       2.25       -92.8545     0.0000E+00
       2.26       -92.8648     0.0000E+00
       2.27       -92.8750     0.0000E+00
       2.28       -92.8852     0.0000E+00
       2.29       -92.8956     0.0000E+00
       2.30       -92.9060     0.0000E+00
       2.31       -92.9163     0.0000E+00
       2.32       -92.9269     0.0000E+00
       2.33       -92.9374     0.0000E+00
       2.34       -92.9479     0.0000E+00
       2.35       -92.9585     0.0000E+00
       2.36       -92.9691     0.0000E+00
       2.37       -92.9798     0.0000E+00
       2.38       -92.9905     0.0000E+00
       2.39       -93.0011     0.0000E+00
       2.40       -93.0119     0.0000E+00
       2.41       -93.0228     0.0000E+00
       2.42       -93.0336     0.0000E+00
       2.43       -93.0445     0.0000E+00
       2.44       -93.0555     0.0000E+00
       2.45       -93.0665     0.0000E+00
       2.46       -93.0775     0.0000E+00
       2.47       -93.0886     0.0000E+00
       2.48       -93.0997     0.0000E+00
       2.49       -93.1109     0.0000E+00
       2.50       -93.1221     0.0000E+00
       2.51       -93.1333     0.0000E+00
       2.52       -93.1446     0.0000E+00
       2.53       -93.1559     0.0000E+00
       2.54       -93.1673     0.0000E+00
       2.55       -93.1787     0.0000E+00
       2.56       -93.1901     0.0000E+00
       2.57       -93.2016     0.0000E+00
       2.58       -93.2131     0.0000E+00
       2.59       -93.2247     0.0000E+00
       2.60       -93.2363     0.0000E+00
       2.61       -93.2479     0.0000E+00
       2.62       -93.2596     0.0000E+00
       2.63       -93.2713     0.0000E+00
       2.64       -93.2831     0.0000E+00
       2.65       -93.2949     0.0000E+00
       2.66       -93.3068     0.0000E+00
       2.67       -93.3186     0.0000E+00
       2.68       -93.3305     0.0000E+00
       2.69       -93.3425     0.0000E+00
       2.70       -93.3544     0.0000E+00
       2.71       -93.3665     0.0000E+00
       2.72       -93.3786     0.0000E+00
       2.73       -93.3907     0.0000E+00
       2.74       -93.4028     0.0000E+00
       2.75       -93.4151     0.0000E+00
       2.76       -93.4273     0.0000E+00
       2.77       -93.4395     0.0000E+00
       2.78       -93.4519     0.0000E+00
       2.79       -93.4642     0.0000E+00
       2.80       -93.4766     0.0000E+00
       2.81       -93.4890     0.0000E+00
       2.82       -93.5015     0.0000E+00
       2.83       -93.5139     0.0000E+00
       2.84       -93.5265     0.0000E+00
       2.85       -93.5391     0.0000E+00
       2.86       -93.5517     0.0000E+00
       2.87       -93.5644     0.0000E+00
       2.88       -93.5770     0.0000E+00
       2.89       -93.5897     0.0000E+00
       2.90       -93.6025     0.0000E+00
       2.91       -93.6153     0.0000E+00
       2.92       -93.6281     0.0000E+00
       2.93       -93.6410     0.0000E+00
       2.94       -93.6539     0.0000E+00
       2.95       -93.6668     0.0000E+00
       2.96       -93.6798     0.0000E+00
       2.97       -93.6928     0.0000E+00
       2.98       -93.7058     0.0000E+00
       2.99       -93.7190     0.0000E+00
       3.00       -93.7321     0.0000E+00
       3.01       -93.7453     0.0000E+00
       3.02       -93.7585     0.0000E+00
       3.03       -93.7716     0.0000E+00
       3.04       -93.7849     0.0000E+00
       3.05       -93.7982     0.0000E+00
       3.06       -93.8116     0.0000E+00
       3.07       -93.8249     0.0000E+00
       3.08       -93.8383     0.0000E+00
       3.09       -93.8517     0.0000E+00
       3.10       -93.8652     0.0000E+00
       3.11       -93.8787     0.0000E+00
       3.12       -93.8922     0.0000E+00
       3.13       -93.9058     0.0000E+00
       3.14       -93.9194     0.0000E+00
       3.15       -93.9330     0.0000E+00
       3.16       -93.9468     0.0000E+00
       3.17       -93.9604     0.0000E+00
       3.18       -93.9742     0.0000E+00
       3.19       -93.9880     0.0000E+00
       3.20       -94.0018     0.0000E+00
       3.21       -94.0156     0.0000E+00
       3.22       -94.0295     0.0000E+00
       3.23       -94.0434     0.0000E+00
       3.24       -94.0573     0.0000E+00
       3.25       -94.0713     0.0000E+00
       3.26       -94.0853     0.0000E+00
       3.27       -94.0993     0.0000E+00
       3.28       -94.1133     0.0000E+00
       3.29       -94.1275     0.0000E+00
       3.30       -94.1416     0.0000E+00
       3.31       -94.1557     0.0000E+00
       3.32       -94.1699     0.0000E+00
       3.33       -94.1842     0.0000E+00
       3.34       -94.1984     0.0000E+00
       3.35       -94.2126     0.0000E+00
       3.36       -94.2269     0.0000E+00
       3.37       -94.2413     0.0000E+00
       3.38       -94.2557     0.0000E+00
       3.39       -94.2700     0.0000E+00
       3.40       -94.2844     0.0000E+00
       3.41       -94.2988     0.0000E+00
       3.42       -94.3133     0.0000E+00
       3.43       -94.3278     0.0000E+00
       3.44       -94.3424     0.0000E+00
       3.45       -94.3569     0.0000E+00
       3.46       -94.3715     0.0000E+00
       3.47       -94.3861     0.0000E+00
       3.48       -94.4007     0.0000E+00
       3.49       -94.4154     0.0000E+00
       3.50       -94.4301     0.0000E+00
       3.51       -94.4448     0.0000E+00
       3.52       -94.4596     0.0000E+00
       3.53       -94.4743     0.0000E+00
       3.54       -94.4891     0.0000E+00
       3.55       -94.5039     0.0000E+00
       3.56       -94.5187     0.0000E+00
       3.57       -94.5336     0.0000E+00
       3.58       -94.5484     0.0000E+00
       3.59       -94.5634     0.0000E+00
       3.60       -94.5783     0.0000E+00
       3.61       -94.5933     0.0000E+00
       3.62       -94.6082     0.0000E+00
       3.63       -94.6233     0.0000E+00
       3.64       -94.6383     0.0000E+00
       3.65       -94.6534     0.0000E+00
       3.66       -94.6685     0.0000E+00
       3.67       -94.6835     0.0000E+00
       3.68       -94.6986     0.0000E+00
       3.69       -94.7137     0.0000E+00
       3.70       -94.7289     0.0000E+00
       3.71       -94.7441     0.0000E+00
       3.72       -94.7593     0.0000E+00
       3.73       -94.7745     0.0000E+00
       3.74       -94.7897     0.0000E+00
       3.75       -94.8050     0.0000E+00
       3.76       -94.8202     0.0000E+00
       3.77       -94.8355     0.0000E+00
       3.78       -94.8508     0.0000E+00
       3.79       -94.8662     0.0000E+00
       3.80       -94.8814     0.0000E+00
       3.81       -94.8968     0.0000E+00
       3.82       -94.9122     0.0000E+00
       3.83       -94.9276     0.0000E+00
       3.84       -94.9429     0.0000E+00
       3.85       -94.9583     0.0000E+00
       3.86       -94.9738     0.0000E+00
       3.87       -94.9892     0.0000E+00
       3.88       -95.0047     0.0000E+00
       3.89       -95.0202     0.0000E+00
       3.90       -95.0357     0.0000E+00
       3.91       -95.0512     0.0000E+00
       3.92       -95.0667     0.0000E+00
       3.93       -95.0821     0.0000E+00
       3.94       -95.0977     0.0000E+00
       3.95       -95.1132     0.0000E+00
       3.96       -95.1287     0.0000E+00
       3.97       -95.1443     0.0000E+00
       3.98       -95.1599     0.0000E+00
       3.99       -95.1754     0.0000E+00
       4.00       -95.1910     0.0000E+00
       4.01       -95.2067     0.0000E+00
       4.02       -95.2222     0.0000E+00
       4.03       -95.2379     0.0000E+00
       4.04       -95.2535     0.0000E+00
       4.05       -95.2691     0.0000E+00
       4.06       -95.2847     0.0000E+00
       4.07       -95.3003     0.0000E+00
       4.08       -95.3160     0.0000E+00
       4.09       -95.3316     0.0000E+00
       4.10       -95.3472     0.0000E+00
       4.11       -95.3629     0.0000E+00
       4.12       -95.3785     0.0000E+00
       4.13       -95.3942     0.0000E+00
       4.14       -95.4099     0.0000E+00
       4.15       -95.4254     0.0000E+00
       4.16       -95.4411     0.0000E+00
       4.17       -95.4568     0.0000E+00
       4.18       -95.4724     0.0000E+00
       4.19       -95.4880     0.0000E+00
       4.20       -95.5037     0.0000E+00
       4.21       -95.5193     0.0000E+00
       4.22       -95.5349     0.0000E+00
       4.23       -95.5506     0.0000E+00
       4.24       -95.5662     0.0000E+00
       4.25       -95.5818     0.0000E+00
       4.26       -95.5975     0.0000E+00
       4.27       -95.6131     0.0000E+00
       4.28       -95.6287     0.0000E+00
       4.29       -95.6442     0.0000E+00
       4.30       -95.6598     0.0000E+00
       4.31       -95.6753     0.0000E+00
       4.32       -95.6909     0.0000E+00
       4.33       -95.7065     0.0000E+00
       4.34       -95.7221     0.0000E+00
       4.35       -95.7376     0.0000E+00
       4.36       -95.7531     0.0000E+00
       4.37       -95.7686     0.0000E+00
       4.38       -95.7841     0.0000E+00
       4.39       -95.7995     0.0000E+00
       4.40       -95.8150     0.0000E+00
       4.41       -95.8304     0.0000E+00
       4.42       -95.8458     0.0000E+00
       4.43       -95.8613     0.0000E+00
       4.44       -95.8766     0.0000E+00
       4.45       -95.8919     0.0000E+00
       4.46       -95.9072     0.0000E+00
       4.47       -95.9226     0.0000E+00
       4.48       -95.9379     0.0000E+00
       4.49       -95.9532     0.0000E+00
       4.50       -95.9684     0.0000E+00
       4.51       -95.9836     0.0000E+00
       4.52       -95.9988     0.0000E+00
       4.53       -96.0140     0.0000E+00
       4.54       -96.0291     0.0000E+00
       4.55       -96.0442     0.0000E+00
       4.56       -96.0593     0.0000E+00
       4.57       -96.0743     0.0000E+00
       4.58       -96.0893     0.0000E+00
       4.59       -96.1043     0.0000E+00
       4.60       -96.1192     0.0000E+00
       4.61       -96.1342     0.0000E+00
       4.62       -96.1490     0.0000E+00
       4.63       -96.1638     0.0000E+00
       4.64       -96.1786     0.0000E+00
       4.65       -96.1934     0.0000E+00
       4.66       -96.2081     0.0000E+00
       4.67       -96.2228     0.0000E+00
       4.68       -96.2374     0.0000E+00
       4.69       -96.2520     0.0000E+00
       4.70       -96.2665     0.0000E+00
       4.71       -96.2810     0.0000E+00
       4.72       -96.2955     0.0000E+00
